Au Rho=19.32, Sig=0.nm, P=1., 11.5deg
 Photon Energy (eV), Reflectivity
   30.0000  0.689274
   30.2000  0.693162
   30.4000  0.695838
   30.6000  0.698039
   30.8000  0.700248
   31.0000  0.702550
   31.2000  0.704803
   31.4000  0.707622
   31.6000  0.710621
   31.8000  0.712823
   32.0000  0.712797
   32.2000  0.712858
   32.4000  0.712151
   32.6000  0.711110
   32.8000  0.710130
   33.0000  0.709511
   33.2000  0.708908
   33.4000  0.708301
   33.6000  0.707683
   33.8000  0.707081
   34.0000  0.706415
   34.2000  0.705737
   34.4000  0.705073
   34.6000  0.704310
   34.8000  0.703562
   35.0000  0.702799
   35.2000  0.701949
   35.4000  0.701113
   35.6000  0.700233
   35.8000  0.699275
   36.0000  0.698332
   36.2000  0.697289
   36.4000  0.696157
   36.6000  0.695038
   36.8000  0.693787
   37.0000  0.692452
   37.2000  0.691125
   37.4000  0.689977
   37.6000  0.688932
   37.8000  0.687892
   38.0000  0.686911
   38.2000  0.685968
   38.4000  0.685029
   38.6000  0.684112
   38.8000  0.683213
   39.0000  0.682319
   39.2000  0.681422
   39.4000  0.680522
   39.6000  0.679626
   39.8000  0.678716
   40.0000  0.677765
   40.2000  0.676818
   40.4000  0.675885
   40.6000  0.675086
   40.8000  0.674290
   41.0000  0.673496
   41.2000  0.672775
   41.4000  0.672072
   41.6000  0.671371
   41.8000  0.670704
   42.0000  0.670074
   42.2000  0.669444
   42.4000  0.668824
   42.6000  0.668273
   42.8000  0.667723
   43.0000  0.667173
   43.2000  0.666722
   43.4000  0.666316
   43.6000  0.665910
   43.8000  0.665568
   44.0000  0.665485
   44.2000  0.665400
   44.4000  0.665314
   44.6000  0.665093
   44.8000  0.664807
   45.0000  0.664527
   45.2000  0.664236
   45.4000  0.663746
   45.6000  0.663262
   45.8000  0.662782
   46.0000  0.662266
   46.2000  0.661694
   46.4000  0.661128
   46.6000  0.660567
   46.8000  0.659975
   47.0000  0.659373
   47.2000  0.658777
   47.4000  0.658185
   47.6000  0.657453
   47.8000  0.656715
   48.0000  0.655983
   48.2000  0.655240
   48.4000  0.654349
   48.6000  0.653463
   48.8000  0.652582
   49.0000  0.651652
   49.2000  0.650499
   49.4000  0.649351
   49.6000  0.648208
   49.8000  0.646924
   50.0000  0.645173